
2theta(deg) q(1/A) s(1/nm) Intensity I/N I*f^2 I*PF
0.00000 0.00000 0.00000 61596786969.00000 248187.00000 1508224068.35764 1508224068.35764
0.17051 0.01214 0.01932 22296025010.76213 89835.58773 545922266.92519 545919849.45130
0.34102 0.02428 0.03864 1833581111.29826 7387.90151 44894192.59973 44893397.39804
0.51153 0.03641 0.05795 334867639.88050 1349.25536 8198624.77785 8198298.03639
0.68205 0.04855 0.07727 164843398.99684 664.19030 4035601.73850 4035315.82147
0.85256 0.06069 0.09659 67633971.22644 272.51214 1655623.80081 1655440.52637
1.02307 0.07282 0.11590 22183351.46615 89.38160 542969.07301 542882.52369
1.19358 0.08496 0.13522 22876732.36018 92.17539 559866.15954 559744.69494
1.36409 0.09710 0.15454 8541508.18013 34.41561 209005.74323 208946.52050
1.53460 0.10924 0.17385 6534525.36875 26.32904 159868.27405 159810.94487
1.70512 0.12137 0.19317 4221057.87052 17.00757 103248.86304 103203.15534
1.87563 0.13351 0.21248 3333311.25211 13.43064 81516.72769 81473.06513
2.04614 0.14564 0.23180 1833949.90865 7.38939 44839.05081 44810.47052
2.21665 0.15778 0.25111 1791751.91595 7.21936 43796.16424 43763.40466
2.38716 0.16991 0.27043 957596.17429 3.85837 23400.28006 23379.98184
2.55767 0.18205 0.28974 1083689.14894 4.36642 26473.72437 26447.36462
2.72818 0.19418 0.30905 595908.69282 2.40105 14553.01338 14536.52808
2.89870 0.20632 0.32836 587391.50622 2.36673 14340.19311 14321.85669
3.06921 0.21845 0.34767 432677.63993 1.74335 10559.34974 10544.21416
3.23972 0.23058 0.36698 391801.00034 1.57865 9558.17374 9542.91033
3.41023 0.24272 0.38629 258086.86714 1.03989 6293.65936 6282.52456
3.58074 0.25485 0.40560 295238.03426 1.18958 7196.62526 7182.58956
3.75125 0.26698 0.42491 159856.53048 0.64410 3894.91112 3886.57518
3.92177 0.27911 0.44422 202810.88752 0.81717 4939.24273 4927.69039
4.09228 0.29124 0.46352 134065.38117 0.54018 3263.46573 3255.15584
4.26279 0.30337 0.48283 126197.04555 0.50848 3070.40945 3061.92728
4.43330 0.31550 0.50213 103952.32722 0.41885 2527.88573 2520.33360
4.60381 0.32763 0.52143 103054.68523 0.41523 2504.71616 2496.64783
4.77432 0.33975 0.54074 66796.13324 0.26914 1622.56132 1616.94122
4.94483 0.35188 0.56004 85197.69795 0.34328 2068.36971 2060.68588
5.11535 0.36401 0.57933 52581.58478 0.21186 1275.78065 1270.70962
5.28586 0.37613 0.59863 61130.59448 0.24631 1482.29464 1476.00453
5.45637 0.38826 0.61793 47975.44662 0.19330 1162.57264 1157.31683
5.62688 0.40038 0.63722 44944.17981 0.18109 1088.40690 1083.17506
5.79739 0.41250 0.65652 37177.88878 0.14980 899.72739 895.13733
5.96790 0.42462 0.67581 42211.34384 0.17008 1020.83477 1015.31714
6.13842 0.43674 0.69510 25939.27795 0.10452 626.86773 623.28387
6.30893 0.44886 0.71439 33979.65138 0.13691 820.57906 815.62456
6.47944 0.46098 0.73368 23673.92298 0.09539 571.27733 567.63991
6.64995 0.47310 0.75296 25390.78266 0.10231 612.23746 608.13230
6.82046 0.48522 0.77225 22556.97124 0.09089 543.47989 539.64738
6.99097 0.49733 0.79153 20915.75372 0.08427 503.53187 499.80219
7.16148 0.50945 0.81081 17833.65813 0.07186 428.97950 425.64596
7.33200 0.52156 0.83009 20640.40258 0.08316 496.07674 492.03706
7.50251 0.53367 0.84937 13419.80842 0.05407 322.25792 319.51092
7.67302 0.54578 0.86864 17064.94309 0.06876 409.43101 405.78145
7.84353 0.55789 0.88791 13665.27315 0.05506 327.57056 324.52029
8.01404 0.57000 0.90719 13966.72422 0.05628 334.49057 331.23986
8.18455 0.58211 0.92646 13067.39052 0.05265 312.66056 309.49221
8.35507 0.59421 0.94572 13001.72574 0.05239 310.79378 307.51270
8.52558 0.60632 0.96499 10486.62599 0.04225 250.43004 247.67802
8.69609 0.61842 0.98425 12579.26981 0.05068 300.10806 296.67791
8.86660 0.63052 1.00351 8929.45214 0.03598 212.81927 210.29125
9.03711 0.64263 1.02277 9966.29355 0.04016 237.28816 234.36094
9.20762 0.65472 1.04203 9214.65800 0.03713 219.16454 216.35880
9.37813 0.66682 1.06128 8086.50422 0.03258 192.12904 189.57828
9.54865 0.67892 1.08053 9376.26666 0.03778 222.53368 219.47186
9.71916 0.69101 1.09978 9063.65562 0.03652 214.87968 211.81767
9.88967 0.70311 1.11903 6778.93049 0.02731 160.53580 158.16801
10.06018 0.71520 1.13827 8325.95424 0.03355 196.95006 193.94520
10.23069 0.72729 1.15752 6589.96070 0.02655 155.70731 153.25134
10.40120 0.73938 1.17675 6696.32508 0.02698 158.03728 155.46169
10.57172 0.75146 1.19599 6749.57788 0.02720 159.10698 156.42922
10.74223 0.76355 1.21523 6348.99770 0.02558 149.48590 146.88922
10.91274 0.77563 1.23446 6180.37366 0.02490 145.33999 142.73552
11.08325 0.78771 1.25369 7008.03770 0.02824 164.60200 161.56062
11.25376 0.79979 1.27291 6295.28662 0.02537 147.67788 144.86570
11.42427 0.81187 1.29213 7532.85802 0.03035 176.48754 173.02549
11.59478 0.82395 1.31135 7746.16898 0.03121 181.25444 177.59342
11.76530 0.83602 1.33057 6637.78894 0.02675 155.11925 151.89459
11.93581 0.84810 1.34979 6664.15887 0.02685 155.53258 152.20630
12.10632 0.86017 1.36900 6417.82989 0.02586 149.58611 146.29633
12.27683 0.87224 1.38821 5750.58923 0.02317 133.85536 130.82931
12.44734 0.88430 1.40741 6375.76424 0.02569 148.20723 144.76449
12.61785 0.89637 1.42661 5605.35928 0.02259 130.12111 127.01647
12.78837 0.90843 1.44581 5762.92258 0.02322 133.59424 130.32145
12.95888 0.92049 1.46501 6350.70088 0.02559 147.01471 143.31811
13.12939 0.93255 1.48420 5681.29642 0.02289 131.33315 127.94492
13.29990 0.94461 1.50339 5221.13787 0.02104 120.52399 117.33480
13.47041 0.95666 1.52258 5483.70845 0.02210 126.40313 122.97366
13.64092 0.96872 1.54176 4592.38617 0.01850 105.70385 102.76429
13.81143 0.98077 1.56094 5438.90139 0.02191 125.00469 121.44264
13.98195 0.99281 1.58011 5059.00060 0.02038 116.10114 112.71224
14.15246 1.00486 1.59929 5001.05004 0.02015 114.59971 111.17423
14.32297 1.01690 1.61845 5609.82743 0.02260 128.35606 124.42833
14.49348 1.02895 1.63762 5032.23287 0.02028 114.96516 111.36474
14.66399 1.04099 1.65678 4838.45716 0.01950 110.36851 106.83203
14.83450 1.05302 1.67594 5478.97267 0.02208 124.78556 120.69570
15.00502 1.06506 1.69509 5070.76477 0.02043 115.30811 111.44350
15.17553 1.07709 1.71424 5402.60339 0.02177 122.66056 118.45777
15.34604 1.08912 1.73339 5211.15165 0.02100 118.12598 113.98929
15.51655 1.10115 1.75253 4824.52199 0.01944 109.18683 105.27984
15.68706 1.11317 1.77167 5896.92282 0.02376 133.24169 128.37124
15.85757 1.12520 1.79081 5472.38737 0.02205 123.44821 118.83965
16.02808 1.13722 1.80994 4769.21492 0.01922 107.40952 103.31529
16.19860 1.14923 1.82906 5967.41474 0.02404 134.17285 128.95199
16.36911 1.16125 1.84819 5666.24197 0.02283 127.18937 122.13837
16.53962 1.17326 1.86731 5330.67172 0.02148 119.45648 114.61600
16.71013 1.18527 1.88642 6445.51703 0.02597 144.19574 138.23516
16.88064 1.19728 1.90553 5883.89760 0.02371 131.40793 125.86778
17.05115 1.20928 1.92464 6002.33928 0.02418 133.82394 128.07077
17.22166 1.22129 1.94374 6715.22966 0.02706 149.46034 142.90972
17.39218 1.23329 1.96284 6282.03789 0.02531 139.57658 133.34117
17.56269 1.24528 1.98193 6760.07995 0.02724 149.93599 143.10997
17.73320 1.25728 2.00102 7484.77512 0.03016 165.71816 158.03115
17.90371 1.26927 2.02010 6791.05794 0.02736 150.09331 143.00095
18.07422 1.28126 2.03918 7875.23516 0.03173 173.74620 165.38429
18.24473 1.29324 2.05826 8144.82652 0.03282 179.37293 170.58214
18.41525 1.30522 2.07733 7832.52018 0.03156 172.18501 163.59352
18.58576 1.31720 2.09640 9519.35133 0.03836 208.88894 198.27897
18.75627 1.32918 2.11546 9417.10396 0.03794 206.26964 195.60654
18.92678 1.34115 2.13451 9285.12407 0.03741 203.00706 192.32796
19.09729 1.35313 2.15357 11987.41177 0.04830 261.60742 247.60588
19.26780 1.36509 2.17261 11467.64526 0.04621 249.80196 236.20156
19.43831 1.37706 2.19166 13816.84755 0.05567 300.41619 283.78059
19.60883 1.38902 2.21069 17443.67589 0.07028 378.56551 357.24752
19.77934 1.40098 2.22973 16381.21591 0.06600 354.84099 334.52393
19.94985 1.41293 2.24876 19841.40218 0.07995 428.98354 404.01332
20.12036 1.42489 2.26778 21323.09323 0.08592 460.14547 432.92063
20.29087 1.43684 2.28680 21618.31398 0.08710 465.62852 437.63012
20.46138 1.44878 2.30581 27331.07353 0.11012 587.54811 551.64793
20.63190 1.46073 2.32482 27343.35016 0.11017 586.68327 550.26213
20.80241 1.47267 2.34382 34512.45266 0.13906 739.07640 692.46697
20.97292 1.48460 2.36282 42187.43160 0.16998 901.68427 843.92622
21.14343 1.49654 2.38181 43611.83395 0.17572 930.31511 869.79472
21.31394 1.50847 2.40080 59381.51968 0.23926 1264.23505 1180.72208
21.48445 1.52039 2.41978 82391.91214 0.33198 1750.68669 1633.26975
21.65496 1.53232 2.43876 81604.90948 0.32880 1730.54963 1612.72252
21.82548 1.54424 2.45773 144657.43835 0.58286 3061.60472 2850.01591
21.99599 1.55615 2.47669 216986.47461 0.87429 4583.30012 4261.82410
22.16650 1.56806 2.49565 259303.01527 1.04479 5466.22181 5077.15031
22.33701 1.57997 2.51461 716846.51624 2.88833 15081.22905 13992.05636
22.50752 1.59188 2.53356 3010085.31335 12.12830 63200.00527 58569.35794
22.67803 1.60378 2.55250 6577744.98838 26.50318 137828.81742 127584.64907
22.84855 1.61568 2.57144 2467105.40122 9.94051 51590.81401 47701.53239
23.01906 1.62758 2.59037 655239.00484 2.64010 13674.23828 12628.77336
23.18957 1.63947 2.60929 269568.70668 1.08615 5614.21064 5178.94536
23.36008 1.65136 2.62822 217925.53876 0.87807 4529.39649 4173.34316
23.53059 1.66324 2.64713 133397.66585 0.53749 2766.88198 2546.37324
23.70110 1.67512 2.66604 85338.89148 0.34385 1766.43174 1623.72508
23.87161 1.68700 2.68494 80542.85432 0.32452 1663.72543 1527.48889
24.04213 1.69887 2.70384 57164.65161 0.23033 1178.37724 1080.58286
24.21264 1.71074 2.72273 44968.07564 0.18119 925.04031 847.24356
24.38315 1.72261 2.74161 41606.77024 0.16764 854.11708 781.33177
24.55366 1.73447 2.76049 33697.21636 0.13577 690.30657 630.70623
24.72417 1.74633 2.77937 28839.61534 0.11620 589.56216 537.99512
24.89468 1.75818 2.79823 26957.03371 0.10862 549.92319 501.19991
25.06520 1.77003 2.81709 22603.58486 0.09107 460.14502 418.85190
25.23571 1.78188 2.83595 21824.01576 0.08793 443.34036 403.04772
25.40622 1.79372 2.85479 19863.64858 0.08004 402.66568 365.60645
25.57673 1.80556 2.87364 18303.69631 0.07375 370.25865 335.75394
25.74724 1.81739 2.89247 17659.67287 0.07115 356.47393 322.83972
25.91775 1.82922 2.91130 16346.57969 0.06586 329.26733 297.81582
26.08826 1.84105 2.93012 15012.69356 0.06049 301.75535 272.57792
26.25878 1.85287 2.94894 15427.00498 0.06216 309.42159 279.13837
26.42929 1.86469 2.96775 13819.59920 0.05568 276.58916 249.19193
26.59980 1.87651 2.98655 13107.60303 0.05281 261.77720 235.53595
26.77031 1.88832 3.00535 13451.54459 0.05420 268.06968 240.87754
26.94082 1.90012 3.02414 12673.91016 0.05107 252.02950 226.16215
27.11133 1.91192 3.04292 12848.31439 0.05177 254.94728 228.47334
27.28185 1.92372 3.06170 12946.74689 0.05217 256.34606 229.41676
27.45236 1.93551 3.08046 12704.27162 0.05119 251.00125 224.32847
27.62287 1.94730 3.09923 12768.32455 0.05145 251.72048 224.66417
27.79338 1.95909 3.11798 13026.27396 0.05249 256.24877 228.39181
27.96389 1.97087 3.13673 13057.73881 0.05261 256.30967 228.13081
28.13440 1.98264 3.15547 13709.94886 0.05524 268.52628 238.67269
28.30491 1.99441 3.17421 14410.53078 0.05806 281.63294 249.97300
28.47543 2.00618 3.19294 14670.23150 0.05911 286.08267 253.56639
28.64594 2.01794 3.21166 15170.31889 0.06112 295.18825 261.26814
28.81645 2.02970 3.23037 15834.29882 0.06380 307.43382 271.72091
28.98696 2.04145 3.24908 16508.55181 0.06652 319.82246 282.26772
29.15747 2.05320 3.26778 18400.55118 0.07414 355.69418 313.47770
29.32798 2.06495 3.28647 19289.03992 0.07772 372.04998 327.42032
29.49850 2.07669 3.30515 20828.25256 0.08392 400.85481 352.25949
29.66901 2.08842 3.32383 23076.54031 0.09298 443.14662 388.85809
29.83952 2.10015 3.34250 26168.70542 0.10544 501.41853 439.34837
30.01003 2.11188 3.36116 30983.14689 0.12484 592.35768 518.26806
30.18054 2.12360 3.37982 34559.30641 0.13925 659.26932 575.95949
30.35105 2.13532 3.39846 40966.21462 0.16506 779.76199 680.21570
30.52156 2.14703 3.41711 45569.38688 0.18361 865.45972 753.84811
30.69208 2.15874 3.43574 57502.36451 0.23169 1089.67233 947.72472
30.86259 2.17044 3.45436 63229.81221 0.25477 1195.55015 1038.24602
31.03310 2.18214 3.47298 90411.74647 0.36429 1705.71166 1479.04437
31.20361 2.19383 3.49159 106209.59194 0.42794 1999.30273 1730.98847
31.37412 2.20552 3.51019 163472.31533 0.65867 3070.38141 2654.26885
31.54463 2.21720 3.52879 195504.68575 0.78773 3663.85140 3162.45494
31.71515 2.22888 3.54737 408165.27906 1.64459 7632.18006 6577.57745
31.88566 2.24055 3.56595 544547.06526 2.19410 10159.66000 8742.27320
32.05617 2.25222 3.58452 2023950.00700 8.15494 37676.80800 32370.10574
32.22668 2.26388 3.60308 5692900.49213 22.93795 105739.65253 90704.68140
32.39719 2.27554 3.62164 3980134.09301 16.03684 73761.77892 63174.52936
32.56770 2.28720 3.64019 871298.07822 3.51065 16111.25172 13777.03432
32.73821 2.29884 3.65872 484151.30473 1.95075 8932.47827 7626.25417
32.90873 2.31049 3.67725 262312.47351 1.05691 4828.78261 4116.10884
33.07924 2.32212 3.69578 175829.59288 0.70846 3229.52072 2748.49031
33.24975 2.33376 3.71429 122252.65081 0.49258 2240.42987 1903.66923
33.42026 2.34539 3.73280 91442.79065 0.36844 1672.04940 1418.43787
33.59077 2.35701 3.75129 72886.34849 0.29368 1329.75618 1126.24115
33.76128 2.36863 3.76978 55784.14986 0.22477 1015.45922 858.65188
33.93180 2.38024 3.78826 48320.69303 0.19469 877.62774 740.89619
34.10231 2.39184 3.80674 39544.28652 0.15933 716.61544 603.98017
34.27282 2.40345 3.82520 34764.27369 0.14007 628.57996 528.91233
34.44333 2.41504 3.84366 29762.42312 0.11992 536.93334 451.05273
34.61384 2.42663 3.86210 27301.99827 0.11001 491.44058 412.15343
34.78435 2.43822 3.88054 23788.30072 0.09585 427.23251 357.70938
34.95486 2.44980 3.89897 22579.21683 0.09098 404.60744 338.20127
35.12538 2.46137 3.91739 19796.51213 0.07976 353.94652 295.35991
35.29589 2.47294 3.93581 18660.10204 0.07519 332.87932 277.31315
35.46640 2.48450 3.95421 17732.76046 0.07145 315.62609 262.49651
35.63691 2.49606 3.97261 16645.64126 0.06707 295.61110 245.43449
35.80742 2.50762 3.99099 16232.55847 0.06540 287.62774 238.40048
35.97793 2.51916 4.00937 15485.38524 0.06239 273.77221 226.52936
36.14845 2.53070 4.02774 15738.82254 0.06342 277.62791 229.32653
36.31896 2.54224 4.04610 14974.09552 0.06033 263.54514 217.31993
36.48947 2.55377 4.06445 15520.89913 0.06254 272.55543 224.36240
36.65998 2.56529 4.08279 15029.27356 0.06056 263.32952 216.39280
36.83049 2.57681 4.10113 15698.26974 0.06325 274.43342 225.12598
37.00100 2.58833 4.11945 15980.65173 0.06439 278.74265 228.26261
37.17151 2.59983 4.13776 16520.03126 0.06656 287.50382 235.02556
37.34203 2.61134 4.15607 17551.24614 0.07072 304.76469 248.69877
37.51254 2.62283 4.17437 18545.60253 0.07472 321.30812 261.73730
37.68305 2.63432 4.19265 20542.13294 0.08277 355.09986 288.75317
37.85356 2.64581 4.21093 22108.90684 0.08908 381.32617 309.52995
38.02407 2.65728 4.22920 25509.09249 0.10278 438.98423 355.69866
38.19458 2.66876 4.24746 29021.29757 0.11693 498.30528 403.04499
38.36510 2.68022 4.26571 34270.88663 0.13808 587.12284 474.03372
38.53561 2.69168 4.28395 42848.10141 0.17264 732.42038 590.28319
38.70612 2.70314 4.30218 56277.93376 0.22676 959.82581 772.16422
38.87663 2.71459 4.32040 74343.93667 0.29955 1265.10199 1015.91551
39.04714 2.72603 4.33861 109187.76640 0.43994 1853.87285 1486.01897
39.21765 2.73747 4.35681 166249.48674 0.66986 2816.38835 2253.44461
39.38816 2.74890 4.37501 281866.99321 1.13570 4764.34294 3805.08966
39.55868 2.76032 4.39319 773793.35119 3.11778 13050.00465 10403.45734
39.72919 2.77174 4.41136 2296010.27413 9.25113 38635.51527 30743.72644
39.89970 2.78315 4.42953 1980512.32256 7.97992 33252.01600 26411.20409
40.07021 2.79456 4.44768 551211.40737 2.22095 9233.92904 7320.73761
40.24072 2.80596 4.46582 250132.65736 1.00784 4180.87327 3308.49959
40.41123 2.81735 4.48396 138823.29130 0.55935 2315.19509 1828.71130
40.58175 2.82874 4.50208 94389.40433 0.38032 1570.64321 1238.30120
40.75226 2.84012 4.52019 63278.78324 0.25496 1050.61079 826.76017
40.92277 2.85150 4.53830 49914.46558 0.20112 826.87530 649.47793
41.09328 2.86287 4.55639 37446.13355 0.15088 618.94328 485.24348
41.26379 2.87423 4.57448 30864.71004 0.12436 509.02227 398.31615
41.43430 2.88558 4.59255 26383.25360 0.10630 434.14429 339.08245
41.60481 2.89693 4.61061 22152.56633 0.08926 363.71516 283.53753
41.77533 2.90828 4.62867 20028.02212 0.08070 328.10096 255.28919
41.94584 2.91961 4.64671 17413.46839 0.07016 284.63433 221.04763
42.11635 2.93094 4.66474 16279.74692 0.06559 265.51110 205.80353
42.28686 2.94227 4.68276 14273.94796 0.05751 232.28046 179.70174
42.45737 2.95358 4.70078 14145.81973 0.05700 229.68400 177.35268
42.62788 2.96489 4.71878 13023.12663 0.05247 210.98542 162.60160
42.79840 2.97620 4.73677 12501.80066 0.05037 202.09000 155.44636
42.96891 2.98750 4.75475 12653.76631 0.05098 204.09279 156.68403
43.13942 2.99879 4.77272 11977.22522 0.04826 192.75259 147.69189
43.30993 3.01007 4.79068 11923.91660 0.04804 191.46951 146.42441
43.48044 3.02135 4.80863 12144.43739 0.04893 194.57872 148.51307
43.65095 3.03262 4.82656 11808.22822 0.04758 188.77326 143.80149
43.82146 3.04388 4.84449 12439.25611 0.05012 198.42141 150.85618
43.99198 3.05514 4.86241 13121.43474 0.05287 208.84035 158.46698
44.16249 3.06639 4.88032 13132.44456 0.05291 208.55384 157.93942
44.33300 3.07764 4.89821 14859.28830 0.05987 235.45654 177.96280
44.50351 3.08887 4.91610 16261.04357 0.06552 257.09989 193.93880
44.67402 3.10010 4.93397 16508.28393 0.06652 260.43344 196.06592
44.84453 3.11133 4.95183 20009.11757 0.08062 314.96674 236.65237
45.01505 3.12254 4.96968 25630.99825 0.10327 402.57319 301.87703
45.18556 3.13375 4.98752 25185.98890 0.10148 394.71308 295.39566
45.35607 3.14496 5.00535 36857.40956 0.14851 576.35643 430.47646
45.52658 3.15615 5.02317 57928.16512 0.23341 903.85873 673.74080
45.69709 3.16734 5.04098 65464.80775 0.26377 1019.21025 758.20817
45.86760 3.17852 5.05878 125309.02526 0.50490 1946.63256 1445.23820
46.03811 3.18970 5.07656 412637.07384 1.66261 6396.11518 4739.15502
46.20863 3.20086 5.09433 1389220.88253 5.59748 21486.53538 15888.34488
46.37914 3.21202 5.11210 1269188.11927 5.11384 19587.04005 14454.63627
46.54965 3.22318 5.12985 358829.87524 1.44580 5525.60455 4069.51578
46.72016 3.23432 5.14759 121370.18612 0.48903 1864.88602 1370.68709
46.89067 3.24546 5.16532 70470.90293 0.28394 1080.43802 792.51506
47.06118 3.25660 5.18303 59876.77890 0.24126 916.00719 670.54318
47.23170 3.26772 5.20074 38912.49873 0.15679 593.99214 433.93768
47.40221 3.27884 5.21843 29130.55785 0.11737 443.70283 323.48658
47.57272 3.28995 5.23611 28685.82428 0.11558 435.97666 317.20745
47.74323 3.30105 5.25379 24037.26093 0.09685 364.53070 264.68478
47.91374 3.31215 5.27144 20929.22894 0.08433 316.70600 229.49043
48.08425 3.32323 5.28909 20794.14916 0.08378 313.97773 227.04885
48.25476 3.33432 5.30673 20375.61202 0.08210 306.98964 221.54149
48.42528 3.34539 5.32435 18331.99965 0.07386 275.59984 198.48150
48.59579 3.35646 5.34196 19620.60712 0.07906 294.33260 211.53777
48.76630 3.36751 5.35957 19247.96309 0.07755 288.11657 206.64511
48.93681 3.37857 5.37715 19442.08779 0.07834 290.39198 207.84890
49.10732 3.38961 5.39473 21102.34968 0.08503 314.50789 224.64654
49.27783 3.40065 5.41230 21386.69939 0.08617 318.05647 226.71302
49.44835 3.41167 5.42985 22582.37579 0.09099 335.11246 238.37778
49.61886 3.42270 5.44739 25386.45581 0.10229 375.91033 266.84644
49.78937 3.43371 5.46492 25923.41969 0.10445 383.03324 271.34048
49.95988 3.44471 5.48243 30501.80421 0.12290 449.70989 317.91467
50.13039 3.45571 5.49994 34034.20058 0.13713 500.70966 353.23455
50.30090 3.46670 5.51743 37639.81207 0.15166 552.56341 389.00708
50.47141 3.47769 5.53491 48180.15654 0.19413 705.77767 495.83891
50.64193 3.48866 5.55238 51544.31618 0.20768 753.43586 528.22074
50.81244 3.49963 5.56983 69705.78999 0.28086 1016.71898 711.32121
50.98295 3.51059 5.58728 89352.68509 0.36002 1300.49005 907.96006
51.15346 3.52154 5.60471 105545.57621 0.42527 1532.87799 1067.97587
51.32397 3.53249 5.62213 163934.41983 0.66053 2375.78213 1651.78641
51.49448 3.54342 5.63953 253754.76952 1.02243 3669.61393 2546.01170
51.66499 3.55435 5.65693 368239.39401 1.48372 5313.82069 3679.07810
51.83551 3.56527 5.67431 936062.21082 3.77160 13478.84382 9312.71317
52.00602 3.57618 5.69168 3372911.70458 13.59020 48464.63835 33414.84490
52.17653 3.58709 5.70903 4661924.49383 18.78392 66843.33560 45989.94830
52.34704 3.59799 5.72637 1777574.38152 7.16224 25432.80949 17461.79797
52.51755 3.60888 5.74370 500945.09518 2.01842 7152.06028 4900.21475
52.68806 3.61976 5.76102 295864.96792 1.19211 4215.11933 2881.92512
52.85858 3.63063 5.77833 209762.68901 0.84518 2982.08949 2034.61359
53.02909 3.64150 5.79562 126065.40884 0.50795 1788.40256 1217.62798
53.19960 3.65235 5.81290 94716.46822 0.38163 1340.82648 910.98164
53.37011 3.66320 5.83017 83428.27267 0.33615 1178.52524 799.03044
53.54062 3.67404 5.84742 59663.11196 0.24040 841.02889 569.01336
53.71113 3.68487 5.86466 52403.49764 0.21115 737.13239 497.67279
53.88164 3.69570 5.88189 48059.91902 0.19364 674.60459 454.50047
54.05216 3.70651 5.89910 39198.17853 0.15794 549.05267 369.13525
54.22267 3.71732 5.91630 38682.47647 0.15586 540.68596 362.74625
54.39318 3.72812 5.93349 34991.54562 0.14099 488.06481 326.75447
54.56369 3.73891 5.95067 32862.03029 0.13241 457.39682 305.57887
54.73420 3.74970 5.96783 33040.29201 0.13313 458.91035 305.94555
54.90471 3.76047 5.98498 32131.49707 0.12946 445.34954 296.28073
55.07523 3.77124 6.00211 32532.98380 0.13108 449.96722 298.72351
55.24574 3.78200 6.01924 34204.53398 0.13782 472.09395 312.75422
55.41625 3.79275 6.03635 35312.23396 0.14228 486.36082 321.52863
55.58676 3.80349 6.05344 39680.64141 0.15988 545.38297 359.79001
55.75727 3.81422 6.07052 42113.50272 0.16968 577.60987 380.24962
55.92778 3.82495 6.08759 49063.59950 0.19769 671.52760 441.14862
56.09829 3.83566 6.10465 56294.90065 0.22682 768.89248 504.05022
56.26881 3.84637 6.12169 67857.05455 0.27341 924.87815 605.03451
56.43932 3.85707 6.13872 90984.79178 0.36660 1237.51980 807.85898
56.60983 3.86776 6.15573 109104.53168 0.43961 1480.88336 964.70027
56.78034 3.87844 6.17273 168637.87965 0.67948 2284.17192 1484.87158
56.95085 3.88912 6.18972 266411.61125 1.07343 3601.00132 2335.99765
57.12136 3.89978 6.20669 401895.21024 1.61932 5421.01143 3509.28750
57.29188 3.91044 6.22365 1210169.20609 4.87604 16289.65329 10523.02268
57.46239 3.92108 6.24060 3367624.26485 13.56890 45236.45005 29161.36116
57.63290 3.93172 6.25753 3265923.21891 13.15912 43779.50978 28163.16057
57.80341 3.94235 6.27445 1129165.77152 4.54966 15105.09861 9696.74411
57.97392 3.95298 6.29136 383891.39063 1.54678 5124.78995 3283.00092
58.14443 3.96359 6.30825 255429.44752 1.02918 3402.83901 2175.35247
58.31494 3.97419 6.32512 159831.31466 0.64400 2124.88758 1355.55850
58.48546 3.98479 6.34199 102619.72949 0.41348 1361.47450 866.73573
58.65597 3.99537 6.35883 84565.89901 0.34073 1119.64253 711.29920
58.82648 4.00595 6.37567 62009.94840 0.24985 819.31683 519.42332
58.99699 4.01652 6.39249 49002.45871 0.19744 646.12372 408.77359
59.16750 4.02708 6.40930 42913.02100 0.17291 564.67054 356.50107
59.33801 4.03763 6.42609 33849.47443 0.13639 444.49526 280.04796
59.50853 4.04817 6.44287 30942.59230 0.12467 405.49171 254.94583
59.67904 4.05871 6.45963 26187.84238 0.10552 342.48064 214.88381
59.84955 4.06923 6.47638 23128.33972 0.09319 301.85106 189.00065
60.02006 4.07974 6.49311 21182.32356 0.08535 275.88923 172.38895
60.19057 4.09025 6.50983 18763.19183 0.07560 243.88309 152.07636
60.36108 4.10075 6.52654 17186.56970 0.06925 222.93536 138.72846
60.53159 4.11123 6.54323 16033.04612 0.06460 207.54942 128.88906
60.70211 4.12171 6.55991 14541.75765 0.05859 187.86205 116.42410
60.87262 4.13218 6.57657 13996.39465 0.05639 180.44961 111.60162
61.04313 4.14264 6.59322 12800.84371 0.05158 164.70127 101.65381
61.21364 4.15309 6.60985 12140.60154 0.04892 155.88995 96.01929
61.38415 4.16354 6.62647 11752.32903 0.04735 150.59909 92.57164
61.55466 4.17397 6.64308 10996.14529 0.04431 140.62430 86.26463
61.72518 4.18439 6.65967 10782.68106 0.04345 137.61605 84.24806
61.89569 4.19481 6.67624 10296.24482 0.04149 131.14285 80.12269
62.06620 4.20521 6.69280 9976.00080 0.04020 126.80799 77.31778
62.23671 4.21561 6.70935 9832.49457 0.03962 124.73239 75.89891
62.40722 4.22599 6.72588 9607.81761 0.03871 121.63726 73.86664
62.57773 4.23637 6.74239 9428.80000 0.03799 119.13124 72.19957
62.74824 4.24674 6.75889 9782.71294 0.03942 123.35503 74.60965
62.91876 4.25710 6.77538 9180.29209 0.03699 115.52697 69.73530
63.08927 4.26745 6.79185 9556.17861 0.03850 120.01664 72.30092
63.25978 4.27778 6.80831 9265.36580 0.03733 116.13178 69.82141
63.43029 4.28811 6.82475 9336.49143 0.03762 116.78970 70.07762
63.60080 4.29843 6.84117 9497.74182 0.03827 118.56992 71.00496
63.77131 4.30875 6.85758 9615.29684 0.03874 119.79845 71.59900
63.94183 4.31905 6.87398 9648.29348 0.03888 119.97047 71.56059
64.11234 4.32934 6.89036 10125.88120 0.04080 125.65884 74.80638
64.28285 4.33962 6.90672 10394.40111 0.04188 128.73513 76.48760
64.45336 4.34989 6.92307 10464.37710 0.04216 129.34492 76.69978
64.62387 4.36016 6.93940 11797.66738 0.04754 145.53639 86.13299
64.79438 4.37041 6.95572 11543.67569 0.04651 142.12158 83.94862
64.96489 4.38065 6.97203 13109.33244 0.05282 161.07864 94.96196
65.13541 4.39089 6.98831 13705.24543 0.05522 168.06866 98.89155
65.30592 4.40111 7.00459 15018.56079 0.06051 183.81113 107.94625
65.47643 4.41133 7.02084 16112.91277 0.06492 196.81679 115.36230
65.64694 4.42153 7.03708 18317.52099 0.07381 223.30602 130.63841
65.81745 4.43173 7.05331 20438.02676 0.08235 248.66771 145.19822
65.98796 4.44191 7.06952 23054.55005 0.09289 279.95281 163.15522
66.15848 4.45209 7.08571 29276.16668 0.11796 354.80620 206.38799
66.32899 4.46225 7.10189 32059.42932 0.12917 387.77753 225.14166
66.49950 4.47241 7.11806 46146.98997 0.18594 557.08461 322.83254
66.67001 4.48255 7.13420 52631.35094 0.21206 634.12415 366.78906
66.84052 4.49269 7.15033 88368.76899 0.35606 1062.62894 613.49735
67.01103 4.50281 7.16645 130980.46638 0.52775 1571.96726 905.87154
67.18154 4.51293 7.18255 218096.10475 0.87876 2612.40242 1502.65196
67.35206 4.52303 7.19863 842067.91243 3.39288 10066.89568 5779.79310
67.52257 4.53313 7.21470 1501584.93341 6.05022 17916.60483 10267.72138
67.69308 4.54322 7.23075 924403.27606 3.72462 11008.43890 6297.22226
67.86359 4.55329 7.24679 247213.09532 0.99608 2938.29413 1677.74833
68.03410 4.56336 7.26281 133411.32117 0.53754 1582.62166 902.02859
68.20461 4.57341 7.27881 97678.91468 0.39357 1156.50354 657.96871
68.37513 4.58346 7.29480 56537.21144 0.22780 668.10288 379.41997
68.54564 4.59349 7.31077 51844.91192 0.20889 611.47544 346.63943
68.71615 4.60352 7.32673 37987.16278 0.15306 447.17215 253.04594
68.88666 4.61353 7.34267 34967.96769 0.14089 410.84160 232.07500
69.05717 4.62354 7.35859 31506.50327 0.12695 369.46344 208.33316
69.22768 4.63353 7.37449 27958.55019 0.11265 327.23086 184.19504
69.39819 4.64352 7.39038 28850.30789 0.11624 337.02299 189.37546
69.56871 4.65349 7.40626 27439.70467 0.11056 319.93304 179.45997
69.73922 4.66345 7.42212 29025.62035 0.11695 337.77918 189.14271
69.90973 4.67341 7.43796 29512.80695 0.11891 342.79519 191.62121
70.08024 4.68335 7.45378 32308.42459 0.13018 374.55357 209.01570
70.25075 4.69328 7.46959 34687.08066 0.13976 401.36640 223.59708
70.42126 4.70320 7.48538 38191.51648 0.15388 441.07901 245.30461
70.59178 4.71312 7.50116 43651.80422 0.17588 503.18658 279.37447
70.76229 4.72302 7.51691 52463.15169 0.21139 603.61460 334.57224
70.93280 4.73291 7.53266 63000.24381 0.25384 723.48119 400.34476
71.10331 4.74279 7.54838 74953.98192 0.30201 859.13323 474.62261
71.27382 4.75266 7.56409 108505.69358 0.43719 1241.36726 684.65772
71.44433 4.76252 7.57978 137942.38831 0.55580 1575.17424 867.34426
71.61484 4.77237 7.59546 226296.71978 0.91180 2579.24962 1417.91561
71.78536 4.78220 7.61111 329659.01677 1.32827 3750.29552 2058.35874
71.95587 4.79203 7.62675 882929.85365 3.55752 10025.66781 5493.78889
72.12638 4.80185 7.64238 2562780.99973 10.32601 29046.00092 15891.05180
72.29689 4.81165 7.65799 3133778.99007 12.62668 35451.29675 19364.69549
72.46740 4.82145 7.67358 1415634.76767 5.70390 15984.72104 8717.67182
72.63791 4.83124 7.68915 425584.33764 1.71477 4796.56939 2611.84740
72.80843 4.84101 7.70471 262951.18322 1.05949 2958.09865 1608.25936
72.97894 4.85077 7.72024 164464.72524 0.66266 1846.73209 1002.48642
73.14945 4.86053 7.73577 118894.27395 0.47905 1332.56028 722.26651
73.31996 4.87027 7.75127 89109.36888 0.35904 996.88547 539.50664
73.49047 4.88000 7.76676 66215.34331 0.26680 739.39702 399.55363
73.66098 4.88972 7.78223 60169.30959 0.24244 670.64461 361.86008
73.83149 4.89943 7.79768 49307.26273 0.19867 548.56469 295.55068
74.00201 4.90913 7.81312 43163.22728 0.17391 479.32669 257.86755
74.17252 4.91882 7.82854 40217.12953 0.16204 445.79040 239.47594
74.34303 4.92849 7.84394 37779.86932 0.15222 418.00669 224.22585
74.51354 4.93816 7.85932 36068.04023 0.14533 398.33610 213.36767
74.68405 4.94781 7.87469 35850.28238 0.14445 395.20757 211.39075
74.85456 4.95746 7.89004 37223.96811 0.14998 409.60203 218.78115
75.02508 4.96709 7.90537 37096.29469 0.14947 407.45339 217.32925
75.19559 4.97671 7.92069 39440.27456 0.15891 432.41078 230.32157
75.36610 4.98633 7.93598 50006.39971 0.20149 547.25857 291.09447
75.53661 4.99593 7.95126 52808.39957 0.21278 576.87485 306.43036
75.70712 5.00551 7.96652 58132.83911 0.23423 633.88864 336.26177
75.87763 5.01509 7.98177 88945.40746 0.35838 968.11964 512.87730
76.04814 5.02466 7.99699 117729.53208 0.47436 1279.10504 676.73120
76.21866 5.03422 8.01220 147176.63616 0.59301 1596.15911 843.36854
76.38917 5.04376 8.02739 262843.39219 1.05905 2845.45763 1501.51707
76.55968 5.05329 8.04257 735006.06302 2.96150 7942.64155 4185.87071
76.73019 5.06282 8.05772 2019739.88476 8.13798 21786.61216 11467.24382
76.90070 5.07233 8.07286 2303826.99733 9.28263 24806.50498 13040.35058
77.07121 5.08183 8.08798 972249.22046 3.91741 10449.99344 5486.55749
77.24173 5.09132 8.10308 324477.21088 1.30739 3481.34091 1825.56218
77.41224 5.10079 8.11816 161088.81188 0.64906 1725.25350 903.59771
77.58275 5.11026 8.13323 124735.24494 0.50259 1333.53112 697.59522
77.75326 5.11971 8.14828 96900.24708 0.39043 1034.10952 540.32004
77.92377 5.12916 8.16331 64220.52969 0.25876 684.13919 357.04199
78.09428 5.13859 8.17832 51244.38814 0.20647 544.93798 284.06539
78.26479 5.14801 8.19331 50380.28505 0.20299 534.80176 278.46247
78.43531 5.15742 8.20829 42130.47693 0.16975 446.43813 232.19023
78.60582 5.16682 8.22325 34697.79211 0.13981 367.02928 190.67705
78.77633 5.17620 8.23818 36072.84200 0.14535 380.90305 197.66670
78.94684 5.18558 8.25311 34342.89780 0.13838 361.99912 187.65246
79.11735 5.19494 8.26801 33147.33877 0.13356 348.78435 180.60833
79.28786 5.20429 8.28289 34599.00479 0.13941 363.42178 187.98890
79.45838 5.21363 8.29776 36426.49354 0.14677 381.94867 197.36637
79.62889 5.22296 8.31261 36708.67540 0.14791 384.23587 198.34416
79.79940 5.23228 8.32743 43520.42612 0.17535 454.74210 234.50201
79.96991 5.24159 8.34224 52450.42900 0.21133 547.09807 281.84675
80.14042 5.25088 8.35704 53907.00143 0.21720 561.31507 288.88672
80.31093 5.26016 8.37181 70637.76429 0.28462 734.25199 377.52496
80.48144 5.26943 8.38657 106303.05385 0.42832 1103.06696 566.61585
80.65196 5.27869 8.40130 138922.76792 0.55975 1439.05964 738.51384
80.82247 5.28794 8.41602 195404.05876 0.78733 2020.64239 1036.02212
80.99298 5.29718 8.43072 455306.85813 1.83453 4700.15166 2407.67530
81.16349 5.30640 8.44540 1310654.45000 5.28091 13506.69129 6912.70925
81.33400 5.31561 8.46006 2176020.43225 8.76766 22386.08320 11447.15395
81.50451 5.32481 8.47471 1416952.48418 5.70921 14552.11439 7434.85420
81.67503 5.33400 8.48933 504091.25027 2.03109 5168.17169 2638.25714
81.84554 5.34318 8.50394 204588.80863 0.82433 2093.95769 1068.04325
82.01605 5.35235 8.51852 137823.33230 0.55532 1408.21292 717.69010
82.18656 5.36150 8.53309 106326.69457 0.42841 1084.54791 552.29618
82.35707 5.37064 8.54764 71926.56666 0.28981 732.41614 372.68583
82.52758 5.37977 8.56217 50768.01862 0.20456 516.08619 262.40730
82.69809 5.38889 8.57668 47890.05484 0.19296 486.00653 246.92869
82.86861 5.39799 8.59117 41303.72228 0.16642 418.45814 212.45371
83.03912 5.40709 8.60565 31780.78390 0.12805 321.43620 163.07863
83.20963 5.41617 8.62010 30107.91323 0.12131 304.00414 154.12706
83.38014 5.42524 8.63453 28409.07263 0.11447 286.36891 145.08735
83.55065 5.43430 8.64895 26406.04889 0.10640 265.73179 134.54225
83.72116 5.44334 8.66335 24969.98442 0.10061 250.85973 126.93015
83.89168 5.45238 8.67773 24634.98170 0.09926 247.08070 124.93917
84.06219 5.46140 8.69208 25123.70824 0.10123 251.56229 127.12721
84.23270 5.47041 8.70642 24870.47329 0.10021 248.61216 125.56132
84.40321 5.47940 8.72074 27509.11647 0.11084 274.53189 138.57156
84.57372 5.48839 8.73504 29951.21796 0.12068 298.40755 150.53803
84.74423 5.49736 8.74932 34257.25931 0.13803 340.74415 171.80165
84.91474 5.50632 8.76359 42198.35240 0.17003 419.03768 211.16496
85.08526 5.51527 8.77783 56229.14764 0.22656 557.44522 280.76841
85.25577 5.52421 8.79205 78638.52307 0.31685 778.32409 391.82415
85.42628 5.53313 8.80625 135387.12970 0.54550 1337.79097 673.14882
85.59679 5.54205 8.82044 380832.41631 1.53446 3756.91927 1889.53199
85.76730 5.55094 8.83460 638786.11388 2.57381 6291.32065 3162.79639
85.93781 5.55983 8.84875 490663.48705 1.97699 4824.58341 2424.39703
86.10832 5.56871 8.86287 193022.15636 0.77773 1894.84762 951.78801
86.27884 5.57757 8.87698 85924.52509 0.34621 842.12516 422.83615
86.44935 5.58642 8.89107 63865.94748 0.25733 624.91733 313.65708
86.61986 5.59526 8.90513 44875.67524 0.18081 438.38858 219.95628
86.79037 5.60408 8.91918 37062.27819 0.14933 361.47370 181.30343
86.96088 5.61290 8.93321 30364.61300 0.12235 295.67189 148.25149
87.13139 5.62170 8.94721 28389.05880 0.11439 275.98934 138.34029
87.30191 5.63049 8.96120 25855.19364 0.10418 250.95130 125.75369
87.47242 5.63926 8.97517 24806.74841 0.09995 240.38822 120.42787
87.64293 5.64803 8.98911 25026.53025 0.10084 242.12911 121.26933
87.81344 5.65678 9.00304 25375.97618 0.10225 245.11702 122.73692
87.98395 5.66552 9.01695 26129.95759 0.10528 251.99685 126.15436
88.15446 5.67424 9.03084 28096.52750 0.11321 270.53040 135.40549
88.32497 5.68296 9.04471 30156.23963 0.12151 289.90050 145.07410
88.49549 5.69166 9.05855 32841.54215 0.13233 315.21365 157.71547
88.66600 5.70035 9.07238 38000.61458 0.15311 364.15236 182.17486
88.83651 5.70902 9.08619 45827.50292 0.18465 438.46110 219.32094
89.00702 5.71768 9.09998 53021.46340 0.21364 506.48932 253.32072
89.17753 5.72633 9.11374 64721.25850 0.26078 617.27769 308.70244
89.34804 5.73497 9.12749 94818.89559 0.38205 902.91092 451.51391
89.51856 5.74360 9.14122 132783.57362 0.53501 1262.44391 631.26652
89.68907 5.75221 9.15492 171576.94054 0.69132 1628.71736 814.38266
89.85958 5.76081 9.16861 380604.80219 1.53354 3607.29346 1803.65756
90.03009 5.76939 9.18228 1103571.56531 4.44653 10443.10057 5221.55173
90.20060 5.77797 9.19592 1865058.43843 7.51473 17621.56566 8810.89083
90.37111 5.78653 9.20955 1383417.85505 5.57409 13050.58130 6525.56440
90.54162 5.79508 9.22315 535894.41981 2.15924 5047.55999 2524.00552
90.71214 5.80361 9.23674 201038.59931 0.81003 1890.63991 945.46598
90.88265 5.81214 9.25030 150008.43418 0.60442 1408.55403 704.44414
91.05316 5.82065 9.26385 111002.36889 0.44725 1040.68641 520.51899
91.22367 5.82914 9.27737 79699.55862 0.32113 746.06162 373.20093
91.39418 5.83763 9.29087 62026.00259 0.24992 579.72906 290.03612
91.56469 5.84610 9.30435 57380.29875 0.23120 535.48575 267.94250
91.73521 5.85456 9.31782 51744.23451 0.20849 482.15010 241.29609
91.90572 5.86300 9.33126 45955.02154 0.18516 427.55284 214.01283
92.07623 5.87143 9.34468 45710.14434 0.18418 424.62669 212.59202
92.24674 5.87985 9.35808 46086.12445 0.18569 427.46849 214.06273
92.41725 5.88826 9.37145 46114.40031 0.18581 427.08178 213.92075
92.58776 5.89665 9.38481 49530.50856 0.19957 458.02499 229.47934
92.75827 5.90503 9.39815 54596.89605 0.21998 504.11265 252.64003
92.92879 5.91340 9.41147 58689.06416 0.23647 541.07994 271.24626
93.09930 5.92175 9.42476 69702.13015 0.28085 641.64712 321.76139
93.26981 5.93009 9.43804 85166.40127 0.34315 782.82699 392.68689
93.44032 5.93842 9.45129 97780.30187 0.39398 897.42365 450.32766
93.61083 5.94674 9.46452 125176.55216 0.50436 1147.14710 575.84856
93.78134 5.95504 9.47774 187159.20953 0.75411 1712.61075 860.02968
93.95186 5.96333 9.49093 259700.22899 1.04639 2372.86198 1192.06621
94.12237 5.97160 9.50410 350652.16772 1.41285 3199.12128 1607.82671
94.29288 5.97986 9.51725 816693.42654 3.29064 7439.92596 3740.80682
94.46339 5.98811 9.53037 2147531.93864 8.65288 19534.66236 9826.48484
94.63390 5.99635 9.54348 3337076.25804 13.44581 30310.31712 15254.07346
94.80441 6.00457 9.55657 2514003.14635 10.12947 22800.77371 11480.35866
94.97492 6.01278 9.56963 1062315.64839 4.28030 9620.51036 4846.42982
95.14544 6.02097 9.58267 400582.62774 1.61404 3622.41961 1825.77781
95.31595 6.02915 9.59570 272501.51269 1.09797 2460.58868 1240.85470
95.48646 6.03732 9.60870 200057.85161 0.80608 1803.80884 910.14906
95.65697 6.04548 9.62168 135219.31173 0.54483 1217.41819 614.62363
95.82748 6.05362 9.63463 96037.47389 0.38696 863.39453 436.14765
95.99799 6.06175 9.64757 81935.39364 0.33014 735.54450 371.78793
96.16851 6.06986 9.66049 68372.74966 0.27549 612.90145 309.98904
96.33902 6.07796 9.67338 52947.17104 0.21334 473.93840 239.85800
96.50953 6.08605 9.68625 45344.87507 0.18270 405.30339 205.25626
96.68004 6.09413 9.69910 40662.28350 0.16384 362.92595 183.91843
96.85055 6.10219 9.71193 35122.75345 0.14152 313.03319 158.74347
97.02106 6.11024 9.72474 30404.40390 0.12251 270.59219 137.31758
97.19157 6.11827 9.73753 28446.61494 0.11462 252.80614 128.38404
97.36209 6.12629 9.75030 25742.05335 0.10372 228.44404 116.09751
97.53260 6.13430 9.76304 22834.23983 0.09200 202.35044 102.91388
97.70311 6.14229 9.77576 21205.85624 0.08544 187.65309 95.51230
97.87362 6.15027 9.78846 20089.70356 0.08095 177.52400 90.42770
98.04413 6.15824 9.80114 18201.46208 0.07334 160.61083 81.87796
98.21464 6.16619 9.81380 17352.71221 0.06992 152.90520 78.01340
98.38516 6.17413 9.82643 16668.28992 0.06716 146.66741 74.89318
98.55567 6.18205 9.83905 15265.55574 0.06151 134.13565 68.55221
98.72618 6.18997 9.85164 14624.12372 0.05892 128.31925 65.63637
98.89669 6.19786 9.86421 14526.60140 0.05853 127.28514 65.16475
99.06720 6.20575 9.87676 13639.61848 0.05496 119.34630 61.15516
99.23771 6.21362 9.88928 13073.75042 0.05268 114.23556 58.58971
99.40822 6.22148 9.90179 12859.28828 0.05181 112.20541 57.60186
99.57874 6.22932 9.91427 12714.63296 0.05123 110.78929 56.92852
99.74925 6.23715 9.92673 12186.95745 0.04910 106.04438 54.54259
99.91976 6.24496 9.93917 11979.34023 0.04827 104.09384 53.59149
100.09027 6.25276 9.95158 11991.16080 0.04832 104.05296 53.62343
100.26078 6.26055 9.96398 11944.78240 0.04813 103.50800 53.39615
100.43129 6.26833 9.97635 11701.09006 0.04715 101.25717 52.28826
100.60181 6.27609 9.98870 11886.49781 0.04789 102.72083 53.09894
100.77232 6.28383 10.00103 12134.49087 0.04889 104.72072 54.18952
100.94283 6.29156 10.01333 12297.71432 0.04955 105.98472 54.90195
101.11334 6.29928 10.02562 12337.99235 0.04971 106.18728 55.06621
101.28385 6.30699 10.03788 12512.66848 0.05042 107.54455 55.83104
101.45436 6.31468 10.05012 12993.19079 0.05235 111.52343 57.96079
101.62487 6.32235 10.06234 14198.54534 0.05721 121.70469 63.32316
101.79539 6.33001 10.07453 14801.09819 0.05964 126.69862 65.99645
101.96590 6.33766 10.08670 14905.44208 0.06006 127.42030 66.44876
102.13641 6.34530 10.09885 16028.87072 0.06458 136.84025 71.44435
102.30692 6.35292 10.11098 18892.14371 0.07612 161.06852 84.19311
102.47743 6.36052 10.12309 23280.76771 0.09380 198.21959 103.73622
102.64794 6.36812 10.13517 24802.81504 0.09994 210.89749 110.50432
102.81846 6.37569 10.14723 26326.45550 0.10608 223.55549 117.27978
102.98897 6.38326 10.15927 38574.80004 0.15543 327.13007 171.82811
103.15948 6.39081 10.17129 69815.20488 0.28130 591.27835 310.96219
103.32999 6.39834 10.18328 159181.84354 0.64138 1346.36247 708.96586
103.50050 6.40586 10.19525 342322.73283 1.37929 2891.55892 1524.57547
103.67101 6.41337 10.20720 420831.21632 1.69562 3550.04145 1874.17287
103.84152 6.42086 10.21912 243347.52072 0.98050 2050.13710 1083.73778
104.01204 6.42834 10.23103 108394.86291 0.43675 912.00351 482.73480
104.18255 6.43581 10.24291 56560.29104 0.22789 475.26147 251.89593
104.35306 6.44326 10.25476 36764.27307 0.14813 308.51867 163.73897
104.52357 6.45069 10.26660 32476.19942 0.13085 272.18018 144.64876
104.69408 6.45812 10.27841 31991.83400 0.12890 267.77349 142.50134
104.86459 6.46552 10.29020 31118.49416 0.12538 260.12704 138.62306
105.03511 6.47292 10.30197 28319.95793 0.11411 236.42823 126.16921
105.20562 6.48029 10.31371 28137.93396 0.11337 234.60652 125.37288
105.37613 6.48766 10.32543 29583.94904 0.11920 246.34655 131.83320
105.54664 6.49501 10.33713 32480.14232 0.13087 270.11708 144.76063
105.71715 6.50234 10.34880 34045.05319 0.13718 282.76995 151.75990
105.88766 6.50967 10.36046 34679.05273 0.13973 287.66890 154.61343
106.05817 6.51697 10.37208 39929.44392 0.16088 330.80092 178.05606
106.22869 6.52427 10.38369 47725.91386 0.19230 394.89060 212.86667
106.39920 6.53154 10.39527 53020.17021 0.21363 438.14118 236.53251
106.56971 6.53881 10.40683 57528.26642 0.23179 474.79483 256.70461
106.74022 6.54606 10.41837 70748.57947 0.28506 583.17041 315.77596
106.91073 6.55329 10.42989 91193.10551 0.36744 750.74793 407.13510
107.08124 6.56051 10.44138 117091.66211 0.47179 962.75063 522.90636
107.25176 6.56772 10.45284 151362.13417 0.60987 1242.97419 676.14953
107.42227 6.57491 10.46429 192095.92363 0.77400 1575.51073 858.37552
107.59278 6.58208 10.47571 279778.77883 1.12729 2291.80495 1250.58629
107.76329 6.58925 10.48711 522845.06590 2.10666 4277.56762 2337.85535
107.93380 6.59639 10.49848 1265520.12305 5.09906 10340.82601 5660.63778
108.10431 6.60353 10.50984 2427886.77997 9.78249 19814.27703 10863.81448
108.27482 6.61064 10.52117 2788025.77990 11.23357 22725.39959 12479.98769
108.44534 6.61775 10.53247 1807245.46390 7.28179 14712.89537 8092.89284
108.61585 6.62484 10.54375 796067.13465 3.20753 6472.89072 3566.24668
108.78636 6.63191 10.55501 363124.67241 1.46311 2948.98954 1627.41456
108.95687 6.63897 10.56625 229919.95470 0.92640 1864.93778 1030.87385
109.12738 6.64601 10.57746 174465.69650 0.70296 1413.41357 782.58397
109.29789 6.65304 10.58865 138199.96357 0.55684 1118.25275 620.19238
109.46841 6.66006 10.59981 110739.13835 0.44619 894.96765 497.19043
109.63892 6.66706 10.61095 88385.64419 0.35613 713.44976 397.01960
109.80943 6.67405 10.62207 73022.62492 0.29422 588.72962 328.17211
109.97994 6.68102 10.63317 64632.24266 0.26042 520.45809 290.61152
110.15045 6.68797 10.64424 62385.10961 0.25136 501.76098 280.65271
110.32096 6.69491 10.65529 58903.76032 0.23734 473.19449 265.13148
110.49147 6.70184 10.66631 52544.80268 0.21171 421.60762 236.63731
110.66199 6.70875 10.67731 50819.59021 0.20476 407.28009 228.99446
110.83250 6.71565 10.68829 55407.15947 0.22325 443.51933 249.80733
111.00301 6.72253 10.69924 58898.43108 0.23731 470.90831 265.70124
111.17352 6.72940 10.71017 58036.59548 0.23384 463.47020 261.96746
111.34403 6.73625 10.72107 61489.89651 0.24776 490.46974 277.72164
111.51454 6.74309 10.73196 74678.27041 0.30090 594.96661 337.49371
111.68506 6.74991 10.74281 88652.97196 0.35720 705.47695 400.89909
111.85557 6.75672 10.75365 109506.73711 0.44123 870.40797 495.51610
112.02608 6.76351 10.76446 137810.39606 0.55527 1094.10197 623.99175
112.19659 6.77029 10.77525 168272.63783 0.67801 1334.39507 762.42131
112.36710 6.77705 10.78601 254551.89394 1.02565 2016.24669 1154.10996
112.53761 6.78380 10.79675 545287.56254 2.19708 4314.10431 2473.94707
112.70812 6.79053 10.80746 1201518.84591 4.84118 9494.99311 5454.98962
112.87864 6.79725 10.81815 1918268.86164 7.72913 15141.67308 8715.17021
113.04915 6.80395 10.82882 1877508.82423 7.56490 14802.94067 8536.02962
113.21966 6.81064 10.83946 1140007.73776 4.59334 8977.94078 5186.73049
113.39017 6.81731 10.85008 513093.89595 2.06737 4036.17523 2336.14106
113.56068 6.82397 10.86068 244657.16746 0.98578 1922.36848 1114.75857
113.73119 6.83061 10.87125 163770.25997 0.65987 1285.34751 746.76311
113.90171 6.83723 10.88180 134127.16480 0.54043 1051.50271 612.05962
114.07222 6.84385 10.89232 106195.08246 0.42788 831.58661 484.96985
114.24273 6.85044 10.90282 85228.76109 0.34341 666.65322 389.52379
114.41324 6.85702 10.91329 71559.52148 0.28833 559.10485 327.30814
114.58375 6.86359 10.92374 58082.18775 0.23403 453.29625 265.87526
114.75426 6.87014 10.93417 51034.98037 0.20563 397.85217 233.80430
114.92477 6.87668 10.94457 50948.41115 0.20528 396.73484 233.59778
115.09529 6.88320 10.95495 49043.09287 0.19761 381.47384 225.04705
115.26580 6.88970 10.96530 43767.97750 0.17635 340.06497 201.00793
115.43631 6.89619 10.97563 41124.87419 0.16570 319.17570 189.02809
115.60682 6.90267 10.98594 43281.89617 0.17439 335.54642 199.11172
115.77733 6.90913 10.99622 44998.46554 0.18131 348.47083 207.18615
115.94784 6.91557 11.00648 45408.54826 0.18296 351.26108 209.25544
116.11836 6.92200 11.01671 49409.37842 0.19908 381.79197 227.89156
116.28887 6.92842 11.02692 56093.08091 0.22601 432.96518 258.94732
116.45938 6.93481 11.03710 59671.75196 0.24043 460.08707 275.71329
116.62989 6.94120 11.04726 67936.35885 0.27373 523.24173 314.18209
116.80040 6.94756 11.05739 96294.24591 0.38799 740.85052 445.73131
116.97091 6.95392 11.06750 119954.33083 0.48332 921.88687 555.75803
117.14142 6.96025 11.07759 137117.64849 0.55248 1052.65919 635.86292
117.31194 6.96657 11.08765 217644.33644 0.87694 1669.07489 1010.23198
117.48245 6.97288 11.09768 499861.73114 2.01405 3829.24941 2322.36488
117.65296 6.97917 11.10770 929935.07079 3.74691 7116.27944 4324.57261
117.82347 6.98545 11.11768 1226331.65291 4.94116 9374.45859 5708.36371
117.99398 6.99171 11.12765 1081851.52323 4.35902 8261.23728 5040.66199
118.16449 6.99795 11.13758 661663.04288 2.66599 5047.24956 3085.85879
118.33501 7.00418 11.14750 303718.61393 1.22375 2314.36079 1417.85830
118.50552 7.01039 11.15738 152487.23312 0.61440 1160.74328 712.55780
118.67603 7.01659 11.16725 123998.04358 0.49962 942.89179 580.00208
118.84654 7.02277 11.17709 105855.98074 0.42652 804.09624 495.63398
119.01705 7.02894 11.18690 77649.72802 0.31287 589.22270 363.93128
119.18756 7.03509 11.19669 59361.33870 0.23918 449.97812 278.49645
119.35807 7.04122 11.20646 55201.33208 0.22242 418.01006 259.24166
119.52859 7.04734 11.21620 49626.07628 0.19995 375.40311 233.29591
119.69910 7.05345 11.22591 43093.00122 0.17363 325.64672 202.79091
119.86961 7.05954 11.23560 40358.01538 0.16261 304.66536 190.11602
120.04012 7.06561 11.24527 39853.17430 0.16058 300.54590 187.93235
120.21063 7.07167 11.25491 37649.09015 0.15170 283.63397 177.72369
120.38114 7.07771 11.26452 35597.95813 0.14343 267.90821 168.21728
120.55165 7.08373 11.27411 37093.64208 0.14946 278.88095 175.46968
120.72217 7.08974 11.28368 40002.26621 0.16118 300.44411 189.42909
120.89268 7.09574 11.29322 40727.49014 0.16410 305.58199 193.06854
121.06319 7.10172 11.30274 41210.30789 0.16605 308.89314 195.56620
121.23370 7.10768 11.31223 44174.79611 0.17799 330.78098 209.85959
121.40421 7.11363 11.32169 50966.77448 0.20536 381.25712 242.38735
121.57472 7.11956 11.33113 62789.31691 0.25299 469.22669 298.93671
121.74524 7.12548 11.34055 74450.28366 0.29998 555.81557 354.84007
121.91575 7.13138 11.34994 85500.76829 0.34450 637.68038 407.95402
122.08626 7.13726 11.35930 101788.62139 0.41013 758.40682 486.20269
122.25677 7.14313 11.36864 135434.38130 0.54569 1008.09896 647.62853
122.42728 7.14898 11.37796 237037.21512 0.95508 1762.63866 1134.73503
122.59779 7.15482 11.38725 486079.95888 1.95852 3611.00645 2329.53067
122.76830 7.16064 11.39651 886556.22252 3.57213 6579.63651 4253.55122
122.93882 7.16644 11.40575 1224880.41073 4.93531 9081.66870 5883.36204
123.10933 7.17223 11.41497 1128810.74574 4.54823 8361.24064 5428.01843
123.27984 7.17801 11.42415 721627.72701 2.90760 5340.00541 3473.94900
123.45035 7.18377 11.43332 374797.58293 1.51014 2770.80166 1806.33697
123.62086 7.18951 11.44246 190238.80335 0.76651 1405.04169 917.89823
123.79137 7.19523 11.45157 123547.33279 0.49780 911.60396 596.79321
123.96189 7.20094 11.46066 98603.26537 0.39729 726.85556 476.84636
124.13240 7.20664 11.46972 85713.42956 0.34536 631.23484 414.98679
124.30291 7.21231 11.47875 76442.12129 0.30800 562.42079 370.52531
124.47342 7.21798 11.48777 65054.91992 0.26212 478.18571 315.69415
124.64393 7.22362 11.49675 54230.01651 0.21850 398.24036 263.46856
124.81444 7.22925 11.50571 49461.10905 0.19929 362.87726 240.57860
124.98495 7.23487 11.51465 48298.45809 0.19461 354.01429 235.19704
125.15547 7.24046 11.52356 48836.80190 0.19677 357.62482 238.09627
125.32598 7.24605 11.53244 48836.74092 0.19677 357.29035 238.37468
125.49649 7.25161 11.54130 46815.09603 0.18863 342.18107 228.77507
125.66700 7.25716 11.55013 46248.32617 0.18634 337.72468 226.27124
125.83751 7.26269 11.55894 50041.65042 0.20163 365.08702 245.11885
126.00802 7.26821 11.56772 56705.35469 0.22848 413.32159 278.08787
126.17854 7.27371 11.57648 60719.66367 0.24465 442.17472 298.12702
126.34905 7.27920 11.58521 62667.12961 0.25250 455.93838 308.05401
126.51956 7.28467 11.59391 66427.59732 0.26765 482.85636 326.92771
126.69007 7.29012 11.60259 77691.54967 0.31304 564.21878 382.81954
126.86058 7.29556 11.61124 98463.12278 0.39673 714.41894 485.74913
127.03109 7.30098 11.61987 122974.22771 0.49549 891.45686 607.39550
127.20160 7.30638 11.62847 145048.22192 0.58443 1050.52593 717.28181
127.37212 7.31177 11.63705 168329.18011 0.67824 1218.04459 833.40793
127.54263 7.31715 11.64560 207590.04383 0.83643 1500.79362 1029.02610
127.71314 7.32250 11.65412 306688.07200 1.23571 2215.25275 1522.08605
127.88365 7.32784 11.66262 568943.58471 2.29240 4105.90424 2827.05816
128.05416 7.33317 11.67110 1081267.04307 4.35666 7796.27332 5379.25903
128.22467 7.33847 11.67954 1759478.95167 7.08933 12675.17346 8763.91631
128.39519 7.34376 11.68796 2252937.54223 9.07758 16215.71113 11235.40214
128.56570 7.34904 11.69636 2085272.04408 8.40202 14995.73807 10411.85593
128.73621 7.35430 11.70473 1443530.64902 5.81630 10371.71747 7216.35687
128.90672 7.35954 11.71307 825175.72769 3.32481 5923.68455 4130.14761
129.07723 7.36477 11.72139 429084.52413 1.72888 3077.58746 2150.25346
129.24774 7.36998 11.72968 254872.56333 1.02694 1826.47604 1278.78660
129.41825 7.37517 11.73795 188154.35668 0.75812 1347.19288 945.18741
129.58877 7.38035 11.74619 158731.14152 0.63956 1135.54280 798.35288
129.75928 7.38551 11.75440 136843.82250 0.55137 978.12352 689.10829
129.92979 7.39065 11.76259 115746.97196 0.46637 826.62120 583.58192
130.10030 7.39578 11.77075 93203.38407 0.37554 665.05605 470.49404
130.27081 7.40089 11.77889 75542.64959 0.30438 538.57936 381.80819
130.44132 7.40599 11.78700 64874.22390 0.26139 462.12755 328.28881
130.61184 7.41107 11.79508 60427.84602 0.24348 430.09090 306.16262
130.78235 7.41613 11.80314 58922.48503 0.23741 419.02401 298.90108
130.95286 7.42118 11.81117 56852.51625 0.22907 403.96480 288.75380
131.12337 7.42620 11.81917 51803.20911 0.20873 367.77969 263.43073
131.29388 7.43122 11.82715 46833.14490 0.18870 332.21781 238.44872
131.46439 7.43622 11.83510 45243.45487 0.18230 320.67501 230.63725
131.63490 7.44120 11.84303 46382.93014 0.18689 328.47973 236.73583
131.80542 7.44616 11.85093 47467.36736 0.19126 335.88285 242.56779
131.97593 7.45111 11.85880 48201.45412 0.19421 340.79749 246.62116
132.14644 7.45604 11.86665 49951.79916 0.20127 352.88419 255.89014
132.31695 7.46095 11.87447 53562.95234 0.21582 378.08692 274.72559
132.48746 7.46585 11.88227 57255.42841 0.23069 403.82309 294.02443
132.65797 7.47073 11.89004 61831.54569 0.24913 435.74578 317.91347
132.82849 7.47560 11.89778 71669.27219 0.28877 504.66821 368.94683
132.99900 7.48044 11.90550 88792.89236 0.35777 624.74427 457.65776
133.16951 7.48528 11.91319 106380.17545 0.42863 747.88904 548.97809
133.34002 7.49009 11.92085 120460.88668 0.48536 846.20613 622.40327
133.51053 7.49489 11.92849 149691.27356 0.60314 1050.70671 774.37903
133.68104 7.49967 11.93610 239463.25158 0.96485 1679.50023 1240.30083
133.85155 7.50444 11.94368 438044.05104 1.76498 3069.84471 2271.62556
134.02207 7.50919 11.95124 712904.55818 2.87245 4992.16237 3701.52653
134.19258 7.51392 11.95877 966446.61157 3.89403 6762.31083 5024.09159
134.36309 7.51863 11.96628 1055866.53669 4.25432 7382.22875 5495.64382
134.53360 7.52333 11.97375 911320.72053 3.67191 6366.66777 4749.08899
134.70411 7.52801 11.98121 642666.02089 2.58944 4486.31756 3353.15423
134.87462 7.53268 11.98863 382197.25517 1.53996 2665.98209 1996.56969
135.04514 7.53733 11.99603 210280.21728 0.84727 1465.66370 1099.82507
135.21565 7.54196 12.00340 137893.19882 0.55560 960.38699 722.09756
135.38616 7.54658 12.01075 113001.81964 0.45531 786.42558 592.46925
135.55667 7.55117 12.01807 98391.94613 0.39644 684.22946 516.49578
135.72718 7.55576 12.02536 80385.84546 0.32389 558.58992 422.48679
135.89769 7.56032 12.03262 63057.63538 0.25407 437.84837 331.81575
136.06820 7.56487 12.03986 53064.92322 0.21381 368.18611 279.57096
136.23872 7.56940 12.04708 47849.81917 0.19280 331.75328 252.40004
136.40923 7.57392 12.05426 43422.84292 0.17496 300.83579 229.32498
136.57974 7.57841 12.06142 37549.13294 0.15129 259.94935 198.54382
136.75025 7.58290 12.06855 32878.60633 0.13248 227.44745 174.05742
136.92076 7.58736 12.07566 30343.98435 0.12226 209.75889 160.83247
137.09127 7.59181 12.08274 28837.99745 0.11619 199.20225 153.03386
137.26179 7.59624 12.08979 27343.36475 0.11017 188.73989 145.27636
137.43230 7.60065 12.09682 24890.90333 0.10029 171.68655 132.40472
137.60281 7.60505 12.10382 22716.50033 0.09153 156.57491 120.98270
137.77332 7.60943 12.11079 21451.13288 0.08643 147.74656 114.38007
137.94383 7.61380 12.11773 20736.70636 0.08355 142.72320 110.70248
138.11434 7.61814 12.12465 20123.53569 0.08108 138.40379 107.55695
138.28485 7.62247 12.13154 19203.11295 0.07737 131.97921 102.75940
138.45537 7.62679 12.13841 18302.29359 0.07374 125.69871 98.05514
138.62588 7.63108 12.14524 17630.18517 0.07104 120.99707 94.56615
138.79639 7.63536 12.15205 17166.14794 0.06917 117.72936 92.18596
138.96690 7.63962 12.15884 16730.78401 0.06741 114.66303 89.95397
139.13741 7.64387 12.16560 16201.92195 0.06528 110.96094 87.21311
139.30792 7.64810 12.17233 15859.34431 0.06390 108.53918 85.46941
139.47844 7.65231 12.17903 15661.43649 0.06310 107.11045 84.50187
139.64895 7.65650 12.18570 15443.28683 0.06222 105.54562 83.42240
139.81946 7.66068 12.19235 15237.60255 0.06140 104.06834 82.40751
139.98997 7.66484 12.19898 14971.83328 0.06032 102.18325 81.06461
140.16048 7.66899 12.20557 14729.36150 0.05935 100.45988 79.84456
140.33099 7.67311 12.21214 14596.00672 0.05881 99.48281 79.21355
140.50150 7.67722 12.21868 14531.63193 0.05855 98.97714 78.95556
140.67202 7.68132 12.22519 14517.39415 0.05849 98.81365 78.96939
140.84253 7.68539 12.23168 14442.72916 0.05819 98.23960 78.65386
141.01304 7.68945 12.23814 14320.37435 0.05770 97.34238 78.07728
141.18355 7.69349 12.24457 14299.01177 0.05761 97.13264 78.05031
141.35406 7.69752 12.25098 14397.80362 0.05801 97.73907 78.67957
141.52457 7.70152 12.25736 14590.91006 0.05879 98.98478 79.82594
141.69509 7.70552 12.26371 14768.74510 0.05951 100.12556 80.89096
141.86560 7.70949 12.27003 14791.27481 0.05960 100.21288 81.10647
142.03611 7.71345 12.27633 14836.35458 0.05978 100.45301 81.44591
142.20662 7.71738 12.28260 15042.66326 0.06061 101.78402 82.67187
142.37713 7.72131 12.28884 15306.24798 0.06167 103.50086 84.21538
142.54764 7.72521 12.29506 15710.95758 0.06330 106.16943 86.53936
142.71815 7.72910 12.30125 16194.93487 0.06525 109.37017 89.30531
142.88867 7.73297 12.30741 16491.40954 0.06645 111.30164 91.04195
143.05918 7.73683 12.31354 16656.83381 0.06711 112.34704 92.05779
143.22969 7.74066 12.31965 16890.07489 0.06805 113.84852 93.45072
143.40020 7.74448 12.32573 17391.97124 0.07008 117.15816 96.33442
143.57071 7.74828 12.33178 18215.41000 0.07339 122.62861 101.00708
143.74122 7.75207 12.33780 19090.41212 0.07692 128.43949 105.97586
143.91174 7.75584 12.34380 19866.56431 0.08005 133.57886 110.40577
144.08225 7.75959 12.34977 20528.35145 0.08271 137.94373 114.20865
144.25276 7.76332 12.35571 21095.42695 0.08500 141.66755 117.49184
144.42327 7.76704 12.36163 21865.65861 0.08810 146.75066 121.91438
144.59378 7.77074 12.36752 23139.64171 0.09323 155.20683 129.15776
144.76429 7.77442 12.37338 25006.46650 0.10076 167.62720 139.72888
144.93480 7.77809 12.37921 27262.35066 0.10985 182.63949 152.49853
145.10532 7.78173 12.38501 29327.84084 0.11817 196.35951 164.22883
145.27583 7.78536 12.39079 30824.75302 0.12420 206.25913 172.79625
145.44634 7.78898 12.39654 32078.70041 0.12925 214.52274 180.01775
145.61685 7.79257 12.40227 33813.97830 0.13624 225.99409 189.95780
145.78736 7.79615 12.40796 36468.82174 0.14694 243.59482 205.08944
145.95787 7.79971 12.41363 40467.76511 0.16305 270.14834 227.81898
146.12839 7.80326 12.41927 46675.51740 0.18807 311.40834 263.04335
146.29890 7.80679 12.42489 54681.83087 0.22033 364.61407 308.48718
146.46941 7.81030 12.43047 62774.94396 0.25293 418.33794 354.51504
146.63992 7.81379 12.43603 70691.32122 0.28483 470.82423 399.63824
146.81043 7.81726 12.44156 78707.50565 0.31713 523.91630 445.41827
146.98094 7.82072 12.44706 87056.81465 0.35077 579.16572 493.17826
147.15145 7.82416 12.45254 99028.67421 0.39901 658.44061 561.57751
147.32197 7.82759 12.45799 120159.26344 0.48415 798.49045 682.10604
147.49248 7.83099 12.46341 159687.72177 0.64342 1060.57670 907.42419
147.66299 7.83438 12.46880 234806.23674 0.94609 1558.61743 1335.64463
147.83350 7.83775 12.47417 357949.20700 1.44226 2374.71726 2038.18423
148.00401 7.84110 12.47951 521347.09681 2.10062 3456.84036 2971.58382
148.17452 7.84444 12.48482 704052.13618 2.83678 4665.73754 4017.01159
148.34504 7.84776 12.49010 873440.23769 3.51928 5785.12915 4988.46503
148.51555 7.85106 12.49535 975044.51697 3.92867 6454.60909 5574.31976
148.68606 7.85435 12.50058 961475.94155 3.87400 6361.37237 5502.21761
148.85657 7.85761 12.50578 841400.35397 3.39019 5563.95030 4819.83465
149.02708 7.86086 12.51095 669412.23950 2.69721 4424.29028 3838.41030
149.19759 7.86409 12.51610 494232.47419 1.99137 3264.76492 2836.71367
149.36810 7.86731 12.52121 342203.74908 1.37881 2259.31785 1966.04581
149.53862 7.87051 12.52630 229736.14160 0.92566 1515.98563 1321.17697
149.70913 7.87369 12.53136 161057.80686 0.64894 1062.23839 927.11670
149.87964 7.87685 12.53640 124221.08164 0.50051 818.86296 715.75933
150.05015 7.87999 12.54140 104162.64449 0.41969 686.28560 600.75988
150.22066 7.88312 12.54638 92696.89168 0.37350 610.43059 535.14248
150.39117 7.88623 12.55133 85308.68654 0.34373 561.49237 492.95916
150.56169 7.88932 12.55625 78777.08230 0.31741 518.24037 455.64763
150.73220 7.89240 12.56114 72329.82690 0.29143 475.58788 418.75140
150.90271 7.89546 12.56601 66018.04921 0.26600 433.86969 382.56852
151.07322 7.89850 12.57085 59397.99667 0.23933 390.16917 344.52767
151.24373 7.90152 12.57566 52945.59062 0.21333 347.61358 307.38730
151.41424 7.90453 12.58044 47940.30310 0.19316 314.59713 278.58567
151.58475 7.90751 12.58520 44697.57796 0.18010 293.17455 259.98117
151.75527 7.91048 12.58993 42644.27970 0.17182 279.57133 248.26565
151.92578 7.91344 12.59463 41478.87520 0.16713 271.80012 241.70119
152.09629 7.91637 12.59930 41178.36850 0.16592 269.70183 240.16788
152.26680 7.91929 12.60394 41446.05484 0.16700 271.32593 241.94740
152.43731 7.92219 12.60856 41670.63976 0.16790 272.66719 243.47698
152.60782 7.92507 12.61314 41310.40429 0.16645 270.18300 241.58788
152.77834 7.92794 12.61770 40343.36969 0.16255 263.73506 236.14230
152.94885 7.93078 12.62224 39291.09544 0.15831 256.73686 230.18640
153.11936 7.93361 12.62674 38681.85651 0.15586 252.63938 226.81653
153.28987 7.93643 12.63122 38657.75708 0.15576 252.36627 226.87355
153.46038 7.93922 12.63566 39144.49463 0.15772 255.42742 229.93001
153.63089 7.94200 12.64008 40133.40401 0.16171 261.76179 235.94276
153.80140 7.94476 12.64448 41673.05391 0.16791 271.68163 245.20516
153.97192 7.94750 12.64884 43629.50765 0.17579 284.30939 256.93670
154.14243 7.95023 12.65318 45561.47359 0.18358 296.76718 268.54251
154.31294 7.95293 12.65748 47115.45925 0.18984 306.75384 277.93681
154.48345 7.95562 12.66177 48584.06055 0.19576 316.17689 286.84132
154.65396 7.95829 12.66602 50626.84862 0.20399 329.32766 299.15202
154.82447 7.96095 12.67024 53391.76317 0.21513 347.16332 315.75216
154.99498 7.96358 12.67444 56544.27115 0.22783 367.50369 334.67215
155.16550 7.96620 12.67860 60223.49676 0.24265 391.24955 356.74155
155.33601 7.96880 12.68274 65171.47070 0.26259 423.21538 386.36687
155.50652 7.97139 12.68686 71731.32326 0.28902 465.61833 425.60202
155.67703 7.97395 12.69094 79411.62996 0.31997 515.25701 471.55165
155.84754 7.97650 12.69500 87505.41618 0.35258 567.53750 520.02983
156.01805 7.97903 12.69902 95430.21516 0.38451 618.68078 567.57756
156.18857 7.98154 12.70302 102573.92612 0.41329 664.72200 610.54842
156.35908 7.98404 12.70699 108931.39789 0.43891 705.63444 648.90010
156.52959 7.98652 12.71094 116485.01043 0.46934 754.26093 694.43925
156.70010 7.98898 12.71485 129701.67958 0.52260 839.50505 773.83268
156.87061 7.99142 12.71874 154707.21254 0.62335 1000.95759 923.73431
157.04112 7.99384 12.72260 198253.86621 0.79881 1282.19904 1184.65262
157.21163 7.99625 12.72643 266778.15600 1.07491 1724.70165 1595.32896
157.38215 7.99864 12.73023 364830.79635 1.46998 2357.68834 2183.33249
157.55266 8.00101 12.73400 493204.18239 1.98723 3186.06118 2953.80156
157.72317 8.00336 12.73775 647828.78467 2.61024 4183.32224 3882.74394
157.89368 8.00570 12.74147 819001.38225 3.29994 5286.65165 4912.29964
158.06419 8.00802 12.74516 989869.06087 3.98840 6387.19323 5941.51811
158.23470 8.01032 12.74882 1135933.83373 4.57693 7326.94359 6823.22856
158.40522 8.01260 12.75245 1229628.17267 4.95444 7928.34225 7391.38188
158.57573 8.01487 12.75606 1250488.96396 5.03850 8059.87827 7522.19155
158.74624 8.01711 12.75963 1194827.68466 4.81422 7698.30644 7192.50582
158.91675 8.01934 12.76318 1077358.79795 4.34092 6938.93537 6489.98143
159.08726 8.02155 12.76670 923614.41996 3.72145 5946.57651 5567.74919
159.25777 8.02375 12.77019 759287.89959 3.05934 4886.83724 4580.35373
159.42828 8.02592 12.77366 603433.22646 2.43137 3882.37042 3642.69702
159.59880 8.02808 12.77709 467334.89456 1.88300 3005.68578 2823.06603
159.76931 8.03022 12.78050 356295.20241 1.43559 2290.73169 2153.77085
159.93982 8.03235 12.78388 271407.45696 1.09356 1744.36021 1641.74493
160.11033 8.03445 12.78723 210672.03369 0.84884 1353.54498 1275.21341
160.28084 8.03654 12.79055 170073.24646 0.68526 1092.33156 1030.15303
160.45135 8.03861 12.79384 144777.47313 0.58334 929.55141 877.51424
160.62187 8.04066 12.79711 130039.18092 0.52396 834.64510 788.70123
160.79238 8.04269 12.80034 121654.46151 0.49017 780.57050 738.32761
160.96289 8.04471 12.80355 116245.48945 0.46838 745.62066 705.95598
161.13340 8.04671 12.80673 111555.20959 0.44948 715.30404 677.90599
161.30391 8.04869 12.80989 106546.86360 0.42930 682.97020 647.88219
161.47442 8.05065 12.81301 101093.80458 0.40733 647.80927 615.11075
161.64493 8.05260 12.81610 95433.65404 0.38452 611.34584 581.03378
161.81545 8.05452 12.81917 89792.83894 0.36180 575.03088 547.02884
161.98596 8.05643 12.82221 84358.46562 0.33990 540.06180 514.23723
162.15647 8.05832 12.82522 79393.17635 0.31989 508.11797 484.26377
162.32698 8.06020 12.82820 75208.65404 0.30303 481.19050 459.01641
162.49749 8.06205 12.83115 71971.04039 0.28999 460.33726 439.51872
162.66800 8.06389 12.83408 69556.32218 0.28026 444.75962 425.02359
162.83852 8.06571 12.83698 67632.32077 0.27251 432.32931 413.50918
163.00903 8.06751 12.83984 65903.33218 0.26554 421.15376 403.17194
163.17954 8.06930 12.84268 64296.92756 0.25907 410.76905 393.57074
163.35005 8.07106 12.84549 62946.37206 0.25362 402.02554 385.52323
163.52056 8.07281 12.84828 62018.46872 0.24989 395.98678 380.05438
163.69107 8.07454 12.85103 61553.77325 0.24801 392.90930 377.41733
163.86158 8.07625 12.85376 61439.00744 0.24755 392.06771 376.92192
164.03210 8.07795 12.85645 61498.99467 0.24779 392.34255 377.49643
164.20261 8.07963 12.85912 61607.87726 0.24823 392.93021 378.36965
164.37312 8.08128 12.86176 61733.85571 0.24874 393.62767 379.34665
164.54363 8.08293 12.86438 61906.91552 0.24944 394.62600 380.61192
164.71414 8.08455 12.86696 62158.84171 0.25045 396.12753 382.36143
164.88465 8.08615 12.86951 62489.00736 0.25178 398.12787 384.59205
165.05517 8.08774 12.87204 62872.59550 0.25333 400.46859 387.15167
165.22568 8.08931 12.87454 63290.35260 0.25501 403.02684 389.92215
165.39619 8.09086 12.87701 63748.49468 0.25686 405.84204 392.94206
165.56670 8.09240 12.87945 64273.53611 0.25897 409.08279 396.37526
165.73721 8.09391 12.88186 64890.37057 0.26146 412.90719 400.37588
165.90772 8.09541 12.88425 65603.99942 0.26433 417.34668 404.97556
166.07823 8.09689 12.88660 66399.87275 0.26754 422.30829 410.08525
166.24875 8.09835 12.88893 67262.15907 0.27101 427.69103 415.60776
166.41926 8.09980 12.89123 68195.92828 0.27478 433.52689 421.57492
166.58977 8.10122 12.89350 69236.90014 0.27897 440.04260 428.20818
166.76028 8.10263 12.89574 70441.26285 0.28382 447.59479 435.85600
166.93079 8.10402 12.89795 71861.18578 0.28954 456.51424 444.84258
167.10130 8.10539 12.90013 73520.37858 0.29623 466.95067 455.31643
167.27182 8.10675 12.90229 75403.49681 0.30382 478.80573 467.18426
167.44233 8.10808 12.90442 77464.64905 0.31212 491.78725 480.16327
167.61284 8.10940 12.90652 79649.55915 0.32093 505.55011 493.91808
167.78335 8.11070 12.90859 81919.38661 0.33007 519.84745 508.20851
167.95386 8.11199 12.91063 84264.85612 0.33952 534.62021 522.97741
168.12437 8.11325 12.91264 86705.75805 0.34936 549.99375 538.34800
168.29488 8.11450 12.91462 89278.70622 0.35972 566.20005 554.54817
168.46540 8.11573 12.91658 92020.95830 0.37077 583.47497 571.81017
168.63591 8.11694 12.91851 94958.18925 0.38261 601.98079 590.29456
168.80642 8.11813 12.92040 98100.36836 0.39527 621.78014 610.06447
168.97693 8.11930 12.92227 101445.09479 0.40874 642.85723 631.10610
169.14744 8.12046 12.92411 104984.54831 0.42301 665.16196 653.37189
169.31795 8.12160 12.92593 108711.78367 0.43802 688.64983 676.81957
169.48847 8.12272 12.92771 112623.88177 0.45379 713.30192 701.43187
169.65898 8.12382 12.92947 116721.91468 0.47030 739.12458 727.21632
169.82949 8.12491 12.93119 121009.30825 0.48757 766.13911 754.19506
